Labels,EmScan12,
Type,Emission Scan,
Comment,,
Start,450.00,
Stop,600.00,
Step,1.00,
Fixed/Offset,443.00,
Xaxis,Wavelength,
Yaxis,Counts,
Scan Corr. by File,False,
Corr. by Ref. Det.,False,
Fixed/Offset Corr. by File,False,
Repeats,1,
Dwell Time,0.50,
Lamp,EPL,
Temp,0.00,
Scan Polariser,None,
Scan Slit,19.9980,
Fixed/Offset Polariser,None,
Fixed/Offset Slit,0.0270,
Detector,PMT,

450.00,1.03800000E+3,
451.00,9.45000000E+2,
452.00,8.76000000E+2,
453.00,7.13000000E+2,
454.00,6.06000000E+2,
455.00,5.99000000E+2,
456.00,5.36000000E+2,
457.00,4.82000000E+2,
458.00,4.93000000E+2,
459.00,4.68000000E+2,
460.00,5.03000000E+2,
461.00,4.79000000E+2,
462.00,4.76000000E+2,
463.00,5.05000000E+2,
464.00,5.29000000E+2,
465.00,5.36000000E+2,
466.00,6.35000000E+2,
467.00,5.89000000E+2,
468.00,6.49000000E+2,
469.00,6.54000000E+2,
470.00,7.87000000E+2,
471.00,7.65000000E+2,
472.00,9.45000000E+2,
473.00,9.08000000E+2,
474.00,1.16300000E+3,
475.00,1.18600000E+3,
476.00,1.34900000E+3,
477.00,1.53900000E+3,
478.00,1.82900000E+3,
479.00,1.98800000E+3,
480.00,2.25400000E+3,
481.00,2.68800000E+3,
482.00,3.02400000E+3,
483.00,3.47100000E+3,
484.00,4.15300000E+3,
485.00,4.82500000E+3,
486.00,5.62600000E+3,
487.00,6.64300000E+3,
488.00,7.90700000E+3,
489.00,9.47700000E+3,
490.00,1.11700000E+4,
491.00,1.37110000E+4,
492.00,1.62880000E+4,
493.00,1.98710000E+4,
494.00,2.38020000E+4,
495.00,2.85070000E+4,
496.00,3.43740000E+4,
497.00,4.18970000E+4,
498.00,5.00580000E+4,
499.00,5.99340000E+4,
500.00,7.19850000E+4,
501.00,8.58660000E+4,
502.00,1.00759000E+5,
503.00,1.17332000E+5,
504.00,1.37264000E+5,
505.00,1.58194000E+5,
506.00,1.80544000E+5,
507.00,2.04271000E+5,
508.00,2.31394000E+5,
509.00,2.56233000E+5,
510.00,2.82583000E+5,
511.00,3.08270000E+5,
512.00,3.34603000E+5,
513.00,3.60178000E+5,
514.00,3.82674000E+5,
515.00,4.06127000E+5,
516.00,4.23631000E+5,
517.00,4.39436000E+5,
518.00,4.55051000E+5,
519.00,4.65864000E+5,
520.00,4.74449000E+5,
521.00,4.78840000E+5,
522.00,4.80668000E+5,
523.00,4.80489000E+5,
524.00,4.78512000E+5,
525.00,4.71994000E+5,
526.00,4.65707000E+5,
527.00,4.56704000E+5,
528.00,4.46777000E+5,
529.00,4.35207000E+5,
530.00,4.23125000E+5,
531.00,4.11264000E+5,
532.00,3.99632000E+5,
533.00,3.85646000E+5,
534.00,3.72402000E+5,
535.00,3.60271000E+5,
536.00,3.47526000E+5,
537.00,3.36226000E+5,
538.00,3.24058000E+5,
539.00,3.12414000E+5,
540.00,3.02361000E+5,
541.00,2.91657000E+5,
542.00,2.81508000E+5,
543.00,2.71645000E+5,
544.00,2.63568000E+5,
545.00,2.56165000E+5,
546.00,2.47754000E+5,
547.00,2.39784000E+5,
548.00,2.32710000E+5,
549.00,2.25241000E+5,
550.00,2.19733000E+5,
551.00,2.12945000E+5,
552.00,2.07203000E+5,
553.00,1.99993000E+5,
554.00,1.93553000E+5,
555.00,1.88688000E+5,
556.00,1.81814000E+5,
557.00,1.76474000E+5,
558.00,1.70175000E+5,
559.00,1.64242000E+5,
560.00,1.59909000E+5,
561.00,1.53146000E+5,
562.00,1.47381000E+5,
563.00,1.42953000E+5,
564.00,1.36898000E+5,
565.00,1.32180000E+5,
566.00,1.27563000E+5,
567.00,1.22049000E+5,
568.00,1.17236000E+5,
569.00,1.12508000E+5,
570.00,1.08131000E+5,
571.00,1.03576000E+5,
572.00,9.97110000E+4,
573.00,9.42870000E+4,
574.00,9.08900000E+4,
575.00,8.64520000E+4,
576.00,8.34710000E+4,
577.00,7.97410000E+4,
578.00,7.59820000E+4,
579.00,7.20790000E+4,
580.00,6.95760000E+4,
581.00,6.66240000E+4,
582.00,6.32130000E+4,
583.00,6.05710000E+4,
584.00,5.83760000E+4,
585.00,5.51410000E+4,
586.00,5.27110000E+4,
587.00,5.08710000E+4,
588.00,4.88120000E+4,
589.00,4.64240000E+4,
590.00,4.48190000E+4,
591.00,4.34510000E+4,
592.00,4.07370000E+4,
593.00,3.94640000E+4,
594.00,3.80920000E+4,
595.00,3.65580000E+4,
596.00,3.51020000E+4,
597.00,3.37790000E+4,
598.00,3.27970000E+4,
599.00,3.12220000E+4,
600.00,3.05990000E+4,
