Labels,EmScan13,
Type,Emission Scan,
Comment,,
Start,450.00,
Stop,600.00,
Step,1.00,
Fixed/Offset,443.00,
Xaxis,Wavelength,
Yaxis,Counts,
Scan Corr. by File,False,
Corr. by Ref. Det.,False,
Fixed/Offset Corr. by File,False,
Repeats,1,
Dwell Time,0.50,
Lamp,EPL,
Temp,0.00,
Scan Polariser,None,
Scan Slit,19.9980,
Fixed/Offset Polariser,None,
Fixed/Offset Slit,0.0270,
Detector,PMT,

450.00,1.09400000E+3,
451.00,1.02400000E+3,
452.00,8.84000000E+2,
453.00,7.54000000E+2,
454.00,6.73000000E+2,
455.00,6.19000000E+2,
456.00,5.77000000E+2,
457.00,4.87000000E+2,
458.00,5.13000000E+2,
459.00,4.53000000E+2,
460.00,4.45000000E+2,
461.00,4.59000000E+2,
462.00,4.95000000E+2,
463.00,5.13000000E+2,
464.00,5.58000000E+2,
465.00,5.24000000E+2,
466.00,5.07000000E+2,
467.00,5.70000000E+2,
468.00,6.38000000E+2,
469.00,6.93000000E+2,
470.00,7.79000000E+2,
471.00,8.31000000E+2,
472.00,8.58000000E+2,
473.00,9.80000000E+2,
474.00,1.13800000E+3,
475.00,1.24600000E+3,
476.00,1.31100000E+3,
477.00,1.58200000E+3,
478.00,1.72600000E+3,
479.00,1.89600000E+3,
480.00,2.31500000E+3,
481.00,2.75500000E+3,
482.00,3.06300000E+3,
483.00,3.79200000E+3,
484.00,4.25500000E+3,
485.00,5.05100000E+3,
486.00,5.93500000E+3,
487.00,7.18400000E+3,
488.00,8.45600000E+3,
489.00,9.87900000E+3,
490.00,1.18940000E+4,
491.00,1.41960000E+4,
492.00,1.70550000E+4,
493.00,2.07010000E+4,
494.00,2.45240000E+4,
495.00,2.95470000E+4,
496.00,3.54810000E+4,
497.00,4.27650000E+4,
498.00,5.05610000E+4,
499.00,6.02160000E+4,
500.00,7.14760000E+4,
501.00,8.31680000E+4,
502.00,9.74850000E+4,
503.00,1.14291000E+5,
504.00,1.30606000E+5,
505.00,1.49375000E+5,
506.00,1.70402000E+5,
507.00,1.91238000E+5,
508.00,2.12498000E+5,
509.00,2.34511000E+5,
510.00,2.58661000E+5,
511.00,2.80859000E+5,
512.00,3.03153000E+5,
513.00,3.22852000E+5,
514.00,3.41635000E+5,
515.00,3.60871000E+5,
516.00,3.77701000E+5,
517.00,3.89529000E+5,
518.00,4.01454000E+5,
519.00,4.09532000E+5,
520.00,4.15865000E+5,
521.00,4.19669000E+5,
522.00,4.20689000E+5,
523.00,4.19554000E+5,
524.00,4.16462000E+5,
525.00,4.11646000E+5,
526.00,4.05538000E+5,
527.00,3.95991000E+5,
528.00,3.88648000E+5,
529.00,3.78252000E+5,
530.00,3.66292000E+5,
531.00,3.56355000E+5,
532.00,3.44848000E+5,
533.00,3.32425000E+5,
534.00,3.22054000E+5,
535.00,3.10924000E+5,
536.00,2.99635000E+5,
537.00,2.90336000E+5,
538.00,2.78928000E+5,
539.00,2.69943000E+5,
540.00,2.60670000E+5,
541.00,2.52628000E+5,
542.00,2.43790000E+5,
543.00,2.35987000E+5,
544.00,2.27948000E+5,
545.00,2.21578000E+5,
546.00,2.14121000E+5,
547.00,2.07782000E+5,
548.00,2.00843000E+5,
549.00,1.94442000E+5,
550.00,1.89596000E+5,
551.00,1.83660000E+5,
552.00,1.78199000E+5,
553.00,1.72045000E+5,
554.00,1.67260000E+5,
555.00,1.62267000E+5,
556.00,1.56671000E+5,
557.00,1.52279000E+5,
558.00,1.46482000E+5,
559.00,1.41702000E+5,
560.00,1.37652000E+5,
561.00,1.32274000E+5,
562.00,1.28080000E+5,
563.00,1.23108000E+5,
564.00,1.17789000E+5,
565.00,1.14168000E+5,
566.00,1.09514000E+5,
567.00,1.04527000E+5,
568.00,1.00709000E+5,
569.00,9.67040000E+4,
570.00,9.27260000E+4,
571.00,8.90940000E+4,
572.00,8.49560000E+4,
573.00,8.14600000E+4,
574.00,7.75880000E+4,
575.00,7.47100000E+4,
576.00,7.07160000E+4,
577.00,6.79740000E+4,
578.00,6.50620000E+4,
579.00,6.21530000E+4,
580.00,5.92110000E+4,
581.00,5.67690000E+4,
582.00,5.44080000E+4,
583.00,5.24490000E+4,
584.00,5.00600000E+4,
585.00,4.75750000E+4,
586.00,4.53470000E+4,
587.00,4.31910000E+4,
588.00,4.18850000E+4,
589.00,4.02240000E+4,
590.00,3.88340000E+4,
591.00,3.69930000E+4,
592.00,3.56030000E+4,
593.00,3.35420000E+4,
594.00,3.23020000E+4,
595.00,3.13320000E+4,
596.00,3.01340000E+4,
597.00,2.91920000E+4,
598.00,2.80550000E+4,
599.00,2.68880000E+4,
600.00,2.60880000E+4,
