Labels,EmScan14,
Type,Emission Scan,
Comment,,
Start,450.00,
Stop,600.00,
Step,1.00,
Fixed/Offset,443.00,
Xaxis,Wavelength,
Yaxis,Counts,
Scan Corr. by File,False,
Corr. by Ref. Det.,False,
Fixed/Offset Corr. by File,False,
Repeats,1,
Dwell Time,0.50,
Lamp,EPL,
Temp,0.00,
Scan Polariser,None,
Scan Slit,19.9980,
Fixed/Offset Polariser,None,
Fixed/Offset Slit,0.0270,
Detector,PMT,

450.00,9.70000000E+2,
451.00,8.96000000E+2,
452.00,8.01000000E+2,
453.00,6.81000000E+2,
454.00,6.16000000E+2,
455.00,5.39000000E+2,
456.00,4.55000000E+2,
457.00,5.14000000E+2,
458.00,4.64000000E+2,
459.00,4.90000000E+2,
460.00,5.09000000E+2,
461.00,5.02000000E+2,
462.00,4.69000000E+2,
463.00,4.68000000E+2,
464.00,5.35000000E+2,
465.00,5.29000000E+2,
466.00,5.40000000E+2,
467.00,5.96000000E+2,
468.00,5.66000000E+2,
469.00,6.37000000E+2,
470.00,6.96000000E+2,
471.00,7.72000000E+2,
472.00,8.04000000E+2,
473.00,8.98000000E+2,
474.00,1.09800000E+3,
475.00,1.16600000E+3,
476.00,1.24800000E+3,
477.00,1.43100000E+3,
478.00,1.67600000E+3,
479.00,1.89700000E+3,
480.00,2.19800000E+3,
481.00,2.46800000E+3,
482.00,3.05700000E+3,
483.00,3.30800000E+3,
484.00,4.00600000E+3,
485.00,4.72400000E+3,
486.00,5.60900000E+3,
487.00,6.43800000E+3,
488.00,7.74500000E+3,
489.00,9.26300000E+3,
490.00,1.12200000E+4,
491.00,1.31460000E+4,
492.00,1.58390000E+4,
493.00,1.90870000E+4,
494.00,2.31500000E+4,
495.00,2.69770000E+4,
496.00,3.24330000E+4,
497.00,3.92430000E+4,
498.00,4.67290000E+4,
499.00,5.59480000E+4,
500.00,6.60080000E+4,
501.00,7.70500000E+4,
502.00,9.08160000E+4,
503.00,1.04636000E+5,
504.00,1.20488000E+5,
505.00,1.38106000E+5,
506.00,1.56465000E+5,
507.00,1.76555000E+5,
508.00,1.96859000E+5,
509.00,2.17403000E+5,
510.00,2.38762000E+5,
511.00,2.57864000E+5,
512.00,2.79233000E+5,
513.00,2.98738000E+5,
514.00,3.15178000E+5,
515.00,3.31479000E+5,
516.00,3.48110000E+5,
517.00,3.58496000E+5,
518.00,3.70830000E+5,
519.00,3.77725000E+5,
520.00,3.83145000E+5,
521.00,3.87747000E+5,
522.00,3.88370000E+5,
523.00,3.87791000E+5,
524.00,3.83556000E+5,
525.00,3.80154000E+5,
526.00,3.73213000E+5,
527.00,3.65014000E+5,
528.00,3.56085000E+5,
529.00,3.47892000E+5,
530.00,3.38995000E+5,
531.00,3.27910000E+5,
532.00,3.17722000E+5,
533.00,3.08944000E+5,
534.00,2.96593000E+5,
535.00,2.87412000E+5,
536.00,2.76779000E+5,
537.00,2.66266000E+5,
538.00,2.57977000E+5,
539.00,2.48476000E+5,
540.00,2.40722000E+5,
541.00,2.32751000E+5,
542.00,2.24835000E+5,
543.00,2.17699000E+5,
544.00,2.10185000E+5,
545.00,2.03697000E+5,
546.00,1.96627000E+5,
547.00,1.91637000E+5,
548.00,1.86156000E+5,
549.00,1.79281000E+5,
550.00,1.74159000E+5,
551.00,1.69235000E+5,
552.00,1.64217000E+5,
553.00,1.58799000E+5,
554.00,1.54093000E+5,
555.00,1.49549000E+5,
556.00,1.44650000E+5,
557.00,1.39452000E+5,
558.00,1.35485000E+5,
559.00,1.30750000E+5,
560.00,1.26090000E+5,
561.00,1.22530000E+5,
562.00,1.15892000E+5,
563.00,1.12485000E+5,
564.00,1.08960000E+5,
565.00,1.04962000E+5,
566.00,1.01309000E+5,
567.00,9.66860000E+4,
568.00,9.26040000E+4,
569.00,8.94870000E+4,
570.00,8.55100000E+4,
571.00,8.18330000E+4,
572.00,7.83270000E+4,
573.00,7.55880000E+4,
574.00,7.23510000E+4,
575.00,6.91680000E+4,
576.00,6.50430000E+4,
577.00,6.28860000E+4,
578.00,6.02140000E+4,
579.00,5.73290000E+4,
580.00,5.50980000E+4,
581.00,5.25700000E+4,
582.00,5.00530000E+4,
583.00,4.73900000E+4,
584.00,4.59350000E+4,
585.00,4.38960000E+4,
586.00,4.17490000E+4,
587.00,4.05480000E+4,
588.00,3.84970000E+4,
589.00,3.63590000E+4,
590.00,3.55790000E+4,
591.00,3.38460000E+4,
592.00,3.28490000E+4,
593.00,3.15380000E+4,
594.00,2.99810000E+4,
595.00,2.90840000E+4,
596.00,2.79680000E+4,
597.00,2.70540000E+4,
598.00,2.57520000E+4,
599.00,2.49000000E+4,
600.00,2.40830000E+4,
