Labels,EmScan15,
Type,Emission Scan,
Comment,,
Start,450.00,
Stop,600.00,
Step,1.00,
Fixed/Offset,443.00,
Xaxis,Wavelength,
Yaxis,Counts,
Scan Corr. by File,False,
Corr. by Ref. Det.,False,
Fixed/Offset Corr. by File,False,
Repeats,1,
Dwell Time,0.50,
Lamp,EPL,
Temp,0.00,
Scan Polariser,None,
Scan Slit,19.9980,
Fixed/Offset Polariser,None,
Fixed/Offset Slit,0.0270,
Detector,PMT,

450.00,1.16000000E+3,
451.00,1.10900000E+3,
452.00,1.08200000E+3,
453.00,9.16000000E+2,
454.00,7.38000000E+2,
455.00,5.90000000E+2,
456.00,5.39000000E+2,
457.00,4.67000000E+2,
458.00,4.91000000E+2,
459.00,4.34000000E+2,
460.00,4.63000000E+2,
461.00,4.45000000E+2,
462.00,4.70000000E+2,
463.00,4.41000000E+2,
464.00,4.27000000E+2,
465.00,5.24000000E+2,
466.00,4.82000000E+2,
467.00,5.04000000E+2,
468.00,5.77000000E+2,
469.00,5.51000000E+2,
470.00,6.24000000E+2,
471.00,6.90000000E+2,
472.00,7.79000000E+2,
473.00,7.85000000E+2,
474.00,8.19000000E+2,
475.00,9.14000000E+2,
476.00,1.10300000E+3,
477.00,1.19600000E+3,
478.00,1.28800000E+3,
479.00,1.51400000E+3,
480.00,1.74600000E+3,
481.00,2.05500000E+3,
482.00,2.24400000E+3,
483.00,2.57700000E+3,
484.00,3.15700000E+3,
485.00,3.60500000E+3,
486.00,4.29300000E+3,
487.00,5.00300000E+3,
488.00,5.92400000E+3,
489.00,7.10600000E+3,
490.00,8.47700000E+3,
491.00,1.01000000E+4,
492.00,1.22740000E+4,
493.00,1.46350000E+4,
494.00,1.78530000E+4,
495.00,2.12900000E+4,
496.00,2.56600000E+4,
497.00,3.11460000E+4,
498.00,3.75470000E+4,
499.00,4.49650000E+4,
500.00,5.34620000E+4,
501.00,6.40510000E+4,
502.00,7.50550000E+4,
503.00,8.81310000E+4,
504.00,1.02277000E+5,
505.00,1.17504000E+5,
506.00,1.34027000E+5,
507.00,1.51615000E+5,
508.00,1.70278000E+5,
509.00,1.88771000E+5,
510.00,2.08280000E+5,
511.00,2.27633000E+5,
512.00,2.45430000E+5,
513.00,2.62553000E+5,
514.00,2.79493000E+5,
515.00,2.97063000E+5,
516.00,3.08708000E+5,
517.00,3.20096000E+5,
518.00,3.30975000E+5,
519.00,3.37865000E+5,
520.00,3.43743000E+5,
521.00,3.46274000E+5,
522.00,3.47186000E+5,
523.00,3.46356000E+5,
524.00,3.45045000E+5,
525.00,3.39541000E+5,
526.00,3.34873000E+5,
527.00,3.27658000E+5,
528.00,3.20677000E+5,
529.00,3.11617000E+5,
530.00,3.03588000E+5,
531.00,2.93691000E+5,
532.00,2.84428000E+5,
533.00,2.74774000E+5,
534.00,2.65921000E+5,
535.00,2.56847000E+5,
536.00,2.48889000E+5,
537.00,2.40736000E+5,
538.00,2.30745000E+5,
539.00,2.22905000E+5,
540.00,2.15511000E+5,
541.00,2.08488000E+5,
542.00,2.01791000E+5,
543.00,1.94845000E+5,
544.00,1.88756000E+5,
545.00,1.82382000E+5,
546.00,1.76819000E+5,
547.00,1.71446000E+5,
548.00,1.66062000E+5,
549.00,1.61438000E+5,
550.00,1.56292000E+5,
551.00,1.52006000E+5,
552.00,1.46877000E+5,
553.00,1.42799000E+5,
554.00,1.38053000E+5,
555.00,1.34155000E+5,
556.00,1.29805000E+5,
557.00,1.25364000E+5,
558.00,1.21270000E+5,
559.00,1.16925000E+5,
560.00,1.13307000E+5,
561.00,1.09907000E+5,
562.00,1.06026000E+5,
563.00,1.01578000E+5,
564.00,9.75110000E+4,
565.00,9.48080000E+4,
566.00,9.05980000E+4,
567.00,8.70260000E+4,
568.00,8.37080000E+4,
569.00,7.98120000E+4,
570.00,7.70240000E+4,
571.00,7.35850000E+4,
572.00,7.07880000E+4,
573.00,6.71360000E+4,
574.00,6.48730000E+4,
575.00,6.15110000E+4,
576.00,5.87800000E+4,
577.00,5.66250000E+4,
578.00,5.36660000E+4,
579.00,5.17620000E+4,
580.00,4.91590000E+4,
581.00,4.71660000E+4,
582.00,4.50740000E+4,
583.00,4.32370000E+4,
584.00,4.12570000E+4,
585.00,3.92770000E+4,
586.00,3.77270000E+4,
587.00,3.64350000E+4,
588.00,3.52120000E+4,
589.00,3.31480000E+4,
590.00,3.18360000E+4,
591.00,3.06210000E+4,
592.00,2.89910000E+4,
593.00,2.82640000E+4,
594.00,2.72490000E+4,
595.00,2.64270000E+4,
596.00,2.48580000E+4,
597.00,2.40540000E+4,
598.00,2.28940000E+4,
599.00,2.20240000E+4,
600.00,2.16080000E+4,
