Labels,EmScan16,
Type,Emission Scan,
Comment,,
Start,450.00,
Stop,600.00,
Step,1.00,
Fixed/Offset,443.00,
Xaxis,Wavelength,
Yaxis,Counts,
Scan Corr. by File,False,
Corr. by Ref. Det.,False,
Fixed/Offset Corr. by File,False,
Repeats,1,
Dwell Time,0.50,
Lamp,EPL,
Temp,0.00,
Scan Polariser,None,
Scan Slit,19.9980,
Fixed/Offset Polariser,None,
Fixed/Offset Slit,0.0270,
Detector,PMT,

450.00,2.60400000E+3,
451.00,2.37800000E+3,
452.00,1.91600000E+3,
453.00,1.57200000E+3,
454.00,1.28200000E+3,
455.00,1.02000000E+3,
456.00,8.57000000E+2,
457.00,7.09000000E+2,
458.00,6.46000000E+2,
459.00,6.49000000E+2,
460.00,6.04000000E+2,
461.00,5.63000000E+2,
462.00,5.95000000E+2,
463.00,4.83000000E+2,
464.00,5.74000000E+2,
465.00,5.39000000E+2,
466.00,5.43000000E+2,
467.00,5.59000000E+2,
468.00,5.92000000E+2,
469.00,5.91000000E+2,
470.00,6.00000000E+2,
471.00,6.60000000E+2,
472.00,7.73000000E+2,
473.00,8.14000000E+2,
474.00,8.06000000E+2,
475.00,8.69000000E+2,
476.00,1.08500000E+3,
477.00,1.15200000E+3,
478.00,1.36700000E+3,
479.00,1.40300000E+3,
480.00,1.72400000E+3,
481.00,1.87100000E+3,
482.00,2.12100000E+3,
483.00,2.40700000E+3,
484.00,2.79900000E+3,
485.00,3.34100000E+3,
486.00,3.82300000E+3,
487.00,4.49300000E+3,
488.00,5.31200000E+3,
489.00,6.18300000E+3,
490.00,7.33200000E+3,
491.00,8.65000000E+3,
492.00,1.01630000E+4,
493.00,1.21660000E+4,
494.00,1.44590000E+4,
495.00,1.73040000E+4,
496.00,2.06330000E+4,
497.00,2.52110000E+4,
498.00,2.96830000E+4,
499.00,3.54250000E+4,
500.00,4.21750000E+4,
501.00,5.08710000E+4,
502.00,5.98200000E+4,
503.00,7.08160000E+4,
504.00,8.40510000E+4,
505.00,9.82410000E+4,
506.00,1.14698000E+5,
507.00,1.32402000E+5,
508.00,1.52445000E+5,
509.00,1.74865000E+5,
510.00,1.96950000E+5,
511.00,2.18900000E+5,
512.00,2.43095000E+5,
513.00,2.67743000E+5,
514.00,2.92386000E+5,
515.00,3.17291000E+5,
516.00,3.40044000E+5,
517.00,3.62071000E+5,
518.00,3.83143000E+5,
519.00,4.00681000E+5,
520.00,4.16862000E+5,
521.00,4.31055000E+5,
522.00,4.41466000E+5,
523.00,4.50015000E+5,
524.00,4.56257000E+5,
525.00,4.57557000E+5,
526.00,4.57975000E+5,
527.00,4.56512000E+5,
528.00,4.50571000E+5,
529.00,4.45862000E+5,
530.00,4.36127000E+5,
531.00,4.29038000E+5,
532.00,4.17783000E+5,
533.00,4.07229000E+5,
534.00,3.95846000E+5,
535.00,3.82769000E+5,
536.00,3.69954000E+5,
537.00,3.57796000E+5,
538.00,3.45135000E+5,
539.00,3.34167000E+5,
540.00,3.21211000E+5,
541.00,3.11369000E+5,
542.00,3.00949000E+5,
543.00,2.88570000E+5,
544.00,2.77993000E+5,
545.00,2.69081000E+5,
546.00,2.59178000E+5,
547.00,2.51645000E+5,
548.00,2.42652000E+5,
549.00,2.35419000E+5,
550.00,2.30235000E+5,
551.00,2.21484000E+5,
552.00,2.15137000E+5,
553.00,2.07571000E+5,
554.00,2.01310000E+5,
555.00,1.95915000E+5,
556.00,1.89384000E+5,
557.00,1.83840000E+5,
558.00,1.78307000E+5,
559.00,1.72447000E+5,
560.00,1.67059000E+5,
561.00,1.61600000E+5,
562.00,1.55881000E+5,
563.00,1.50918000E+5,
564.00,1.45661000E+5,
565.00,1.40750000E+5,
566.00,1.35485000E+5,
567.00,1.30644000E+5,
568.00,1.25775000E+5,
569.00,1.21126000E+5,
570.00,1.16212000E+5,
571.00,1.11680000E+5,
572.00,1.07140000E+5,
573.00,1.02414000E+5,
574.00,9.86850000E+4,
575.00,9.46030000E+4,
576.00,8.99160000E+4,
577.00,8.69990000E+4,
578.00,8.34110000E+4,
579.00,7.91930000E+4,
580.00,7.54460000E+4,
581.00,7.22350000E+4,
582.00,6.95770000E+4,
583.00,6.60570000E+4,
584.00,6.28890000E+4,
585.00,6.01340000E+4,
586.00,5.80970000E+4,
587.00,5.54060000E+4,
588.00,5.27990000E+4,
589.00,5.05470000E+4,
590.00,4.80760000E+4,
591.00,4.61590000E+4,
592.00,4.45730000E+4,
593.00,4.25380000E+4,
594.00,4.10820000E+4,
595.00,3.92240000E+4,
596.00,3.75170000E+4,
597.00,3.58870000E+4,
598.00,3.48530000E+4,
599.00,3.34850000E+4,
600.00,3.21240000E+4,
