Labels,EmScan17,
Type,Emission Scan,
Comment,,
Start,450.00,
Stop,600.00,
Step,1.00,
Fixed/Offset,443.00,
Xaxis,Wavelength,
Yaxis,Counts,
Scan Corr. by File,False,
Corr. by Ref. Det.,False,
Fixed/Offset Corr. by File,False,
Repeats,1,
Dwell Time,0.50,
Lamp,EPL,
Temp,0.00,
Scan Polariser,None,
Scan Slit,19.9980,
Fixed/Offset Polariser,None,
Fixed/Offset Slit,0.0270,
Detector,PMT,

450.00,1.35800000E+3,
451.00,1.19700000E+3,
452.00,1.04700000E+3,
453.00,9.28000000E+2,
454.00,6.98000000E+2,
455.00,7.43000000E+2,
456.00,5.25000000E+2,
457.00,5.52000000E+2,
458.00,5.59000000E+2,
459.00,5.18000000E+2,
460.00,4.81000000E+2,
461.00,4.86000000E+2,
462.00,5.19000000E+2,
463.00,4.65000000E+2,
464.00,4.62000000E+2,
465.00,5.10000000E+2,
466.00,5.23000000E+2,
467.00,5.15000000E+2,
468.00,5.37000000E+2,
469.00,6.12000000E+2,
470.00,6.21000000E+2,
471.00,6.73000000E+2,
472.00,7.15000000E+2,
473.00,7.57000000E+2,
474.00,8.83000000E+2,
475.00,8.90000000E+2,
476.00,9.81000000E+2,
477.00,1.18800000E+3,
478.00,1.20500000E+3,
479.00,1.46400000E+3,
480.00,1.62600000E+3,
481.00,1.75200000E+3,
482.00,2.08800000E+3,
483.00,2.34700000E+3,
484.00,2.80500000E+3,
485.00,3.28700000E+3,
486.00,3.79400000E+3,
487.00,4.44800000E+3,
488.00,5.10300000E+3,
489.00,5.95600000E+3,
490.00,7.11500000E+3,
491.00,8.35900000E+3,
492.00,1.01290000E+4,
493.00,1.19220000E+4,
494.00,1.42160000E+4,
495.00,1.69950000E+4,
496.00,1.99260000E+4,
497.00,2.39950000E+4,
498.00,2.87160000E+4,
499.00,3.46240000E+4,
500.00,4.12680000E+4,
501.00,4.90930000E+4,
502.00,5.89150000E+4,
503.00,6.93230000E+4,
504.00,8.14110000E+4,
505.00,9.52400000E+4,
506.00,1.11330000E+5,
507.00,1.28275000E+5,
508.00,1.47199000E+5,
509.00,1.67920000E+5,
510.00,1.89005000E+5,
511.00,2.11354000E+5,
512.00,2.35108000E+5,
513.00,2.57798000E+5,
514.00,2.81446000E+5,
515.00,3.05329000E+5,
516.00,3.25279000E+5,
517.00,3.47552000E+5,
518.00,3.67417000E+5,
519.00,3.85782000E+5,
520.00,4.00489000E+5,
521.00,4.13030000E+5,
522.00,4.24005000E+5,
523.00,4.31260000E+5,
524.00,4.35473000E+5,
525.00,4.38756000E+5,
526.00,4.37463000E+5,
527.00,4.37716000E+5,
528.00,4.31541000E+5,
529.00,4.28092000E+5,
530.00,4.20137000E+5,
531.00,4.10624000E+5,
532.00,4.00284000E+5,
533.00,3.89805000E+5,
534.00,3.78934000E+5,
535.00,3.66394000E+5,
536.00,3.52873000E+5,
537.00,3.42700000E+5,
538.00,3.30936000E+5,
539.00,3.19074000E+5,
540.00,3.07305000E+5,
541.00,2.96555000E+5,
542.00,2.87171000E+5,
543.00,2.76459000E+5,
544.00,2.66858000E+5,
545.00,2.58783000E+5,
546.00,2.49566000E+5,
547.00,2.41473000E+5,
548.00,2.33685000E+5,
549.00,2.26705000E+5,
550.00,2.19120000E+5,
551.00,2.12979000E+5,
552.00,2.04536000E+5,
553.00,1.99254000E+5,
554.00,1.93596000E+5,
555.00,1.87863000E+5,
556.00,1.81221000E+5,
557.00,1.76020000E+5,
558.00,1.70176000E+5,
559.00,1.65280000E+5,
560.00,1.59895000E+5,
561.00,1.53935000E+5,
562.00,1.48928000E+5,
563.00,1.44611000E+5,
564.00,1.39173000E+5,
565.00,1.34565000E+5,
566.00,1.30118000E+5,
567.00,1.25271000E+5,
568.00,1.19506000E+5,
569.00,1.15730000E+5,
570.00,1.11228000E+5,
571.00,1.07391000E+5,
572.00,1.02616000E+5,
573.00,9.84190000E+4,
574.00,9.40120000E+4,
575.00,9.09840000E+4,
576.00,8.68900000E+4,
577.00,8.34350000E+4,
578.00,7.85130000E+4,
579.00,7.64360000E+4,
580.00,7.25700000E+4,
581.00,6.91940000E+4,
582.00,6.63510000E+4,
583.00,6.32630000E+4,
584.00,6.06950000E+4,
585.00,5.86660000E+4,
586.00,5.50790000E+4,
587.00,5.30710000E+4,
588.00,5.08650000E+4,
589.00,4.85590000E+4,
590.00,4.58250000E+4,
591.00,4.45740000E+4,
592.00,4.19160000E+4,
593.00,4.06740000E+4,
594.00,3.88370000E+4,
595.00,3.70640000E+4,
596.00,3.56020000E+4,
597.00,3.42630000E+4,
598.00,3.28150000E+4,
599.00,3.19720000E+4,
600.00,3.05780000E+4,
